Record Length: 1024
BoardID: 31
Channel: 9
Event Number: 179
Pattern: 0x0000
Trigger Time Stamp: 665884374
DC offset (DAC): 0x7FFF
Start Index Cell: 713
2658.000000
2658.000000
2660.898193
2659.082520
2659.955078
2661.903320
2658.220215
2659.864258
2660.000000
2658.183594
2658.000000
2659.857910
2660.000000
2658.068359
2658.000000
2659.994629
2659.000000
2659.021729
2659.932617
2658.048584
2659.000000
2659.081543
2659.909668
2659.093506
2660.278320
2662.528076
2658.207031
2660.233643
2661.736816
2660.146729
2660.669922
2659.356934
2661.184814
2661.077148
2657.179932
2658.358643
2659.625488
2658.195801
2659.000000
2659.000000
2658.811523
2658.353027
2659.490234
2657.170166
2658.362549
2659.404297
2657.869385
2661.000000
2661.000000
2659.936279
2657.813232
2660.561768
2661.089111
2658.668945
2659.074219
2659.875488
2658.381104
2659.000000
2659.390137
2659.598877
2659.000000
2659.433105
2658.648193
2658.397949
2659.523438
2659.000000
2658.502441
2657.490967
2658.033203
2659.519775
2657.927002
2657.012451
2658.000000
2657.071289
2657.813965
2660.912842
2661.535645
2661.472656
2661.032227
2660.000000
2659.483154
2658.468750
2659.616455
2659.915527
2660.083496
2659.931641
2658.478271
2660.053955
2659.432861
2658.030273
2657.969727
2658.555664
2658.423828
2659.098633
2658.970703
2657.000000
2657.460693
2655.769531
2654.298584
2657.689209
2660.836182
2660.739746
2659.846680
2659.727295
2658.423096
2660.681396
2662.173828
2661.399902
2660.848633
2659.742188
2658.833008
2656.399902
2658.318359
2657.685791
2657.931885
2657.851807
2659.870117
2657.625732
2657.362793
2658.000000
2658.628418
2659.428223
2657.737549
2657.492432
2658.766357
2658.439453
2660.207764
2661.000000
2660.408203
2658.198975
2658.794434
2658.431152
2659.776123
2659.446045
2660.572754
2659.000000
2658.799805
2658.197266
2659.000000
2659.375977
2660.456055
2657.825195
2657.334229
2658.840576
2658.000000
2658.156738
2659.324707
2660.661377
2659.173828
2659.826660
2659.000000
2659.321777
2661.157471
2661.678711
2659.835205
2658.667480
2657.660889
2660.505859
2658.500244
2660.831299
2660.165527
2660.697266
2659.000000
2658.790771
2657.086670
2658.152588
2659.613770
2654.359131
2660.825195
2657.079590
2658.920410
2657.041992
2657.956787
2657.223145
2661.856934
2659.053955
2659.940430
2658.939697
2657.939941
2657.133057
2659.088623
2660.000000
2659.651611
2658.666260
2660.487061
2659.275879
2659.426025
2658.291260
2658.416748
2657.572266
2658.724609
2658.779297
2661.243408
2661.093750
2658.423584
2660.202393
2660.200195
2657.204346
2657.791016
2657.417236
2659.411621
2660.801758
2659.442383
2657.000000
2657.510010
2660.173584
2660.635254
2658.808105
2658.401367
2660.217041
2660.034912
2658.057129
2660.427490
2659.608398
2661.000000
2660.660400
2659.645264
2658.262695
2657.774658
2659.407471
2658.729980
2657.436035
2658.900391
2660.000000
2658.561035
2657.496826
2658.518799
2659.000000
2661.249512
2659.574951
2657.572021
2659.144775
2660.574463
2661.575684
2660.854492
2660.000000
2660.569824
2659.845947
2658.413330
2659.790039
2659.792725
2659.000000
2658.386475
2659.237061
2658.758789
2659.239014
2658.772705
2658.610352
2659.616211
2659.368408
2658.347412
2658.000000
2658.000000
2658.735107
2658.224609
2659.624023
2659.166260
2659.844971
2657.436768
2662.202637
2663.881836
2658.608154
2658.907959
2657.175049
2660.651855
2660.081055
2658.149902
2658.000000
2657.079346
2659.736572
2660.000000
2660.902588
2659.208008
2658.113281
2656.254883
2659.467041
2658.254883
2656.227051
2657.793945
2661.594482
2658.410645
2658.000000
2659.821533
2659.080811
2660.844482
2659.144531
2660.854248
2661.000000
2657.278076
2658.884521
2659.000000
2658.053223
2658.940918
2661.805908
2657.385254
2657.000000
2657.000000
2659.494141
2659.198730
2658.222168
2656.485352
2657.472412
2659.435791
2659.292969
2661.806885
2660.182861
2659.713379
2662.160400
2659.409180
2660.146240
2659.563965
2660.447266
2660.269287
2660.000000
2659.253906
2660.516846
2661.770508
2658.865967
2658.788330
2658.215088
2658.000000
2658.785889
2659.000000
2659.790771
2660.788574
2660.221436
2659.239990
2659.741455
2657.833252
2659.794434
2660.331055
2661.279541
2659.551270
2660.354492
2661.427246
2661.000000
2659.882324
2660.118652
2659.858887
2660.181396
2658.566162
2658.855469
2659.376953
2657.744629
2657.000000
2658.280762
2658.349121
2658.000000
2659.992920
2658.354736
2658.307373
2659.648682
2659.350098
2657.693359
2657.657471
2659.980469
2660.339355
2658.691895
2658.000000
2659.222900
2660.590576
2660.426514
2660.000000
2660.534668
2659.981934
2659.000000
2658.554443
2657.575684
2658.258789
2659.147705
2658.867188
2660.000000
2659.569824
2660.273682
2659.917969
2658.629883
2661.396973
2661.224609
2660.000000
2659.629883
2660.058350
2661.004639
2659.000000
2659.307129
2660.000000
2659.679199
2659.664307
2661.333252
2661.018555
2659.000000
2659.976318
2662.000000
2661.679932
2661.000000
2661.594482
2662.429932
2660.729980
2658.998779
2656.927490
2660.224854
2661.000000
2660.308838
2658.452393
2659.359375
2657.000000
2657.936035
2661.634766
2659.816162
2659.729736
2662.474609
2660.328125
2661.537842
2659.292480
2660.583496
2658.261230
2659.880859
2659.228027
2660.886963
2659.893311
2659.290039
2661.824463
2660.083008
2660.912842
2659.822266
2658.158691
2660.119873
2661.968018
2661.002930
2661.000000
2658.229980
2661.573486
2661.140869
2659.364258
2658.215332
2658.763672
2659.746582
2660.725586
2661.000000
2661.000000
2662.347900
2662.344971
2660.090088
2660.237061
2659.179443
2659.208984
2658.788818
2659.214844
2659.386963
2657.769043
2660.038330
2659.592773
2658.604248
2657.177002
2659.020020
2661.000000
2661.000000
2659.295166
2659.677246
2661.553955
2660.907471
2660.000000
2660.515137
2659.998047
2659.479248
2659.093506
2658.856689
2660.402832
2660.241943
2659.000000
2660.779541
2662.238281
2658.652832
2657.656006
2658.032471
2660.000000
2660.000000
2660.329590
2661.000000
2660.679443
2659.369385
2658.917480
2661.000000
2661.286133
2661.428711
2660.000000
2660.000000
2660.290039
2660.399902
2658.692383
2658.000000
2658.605225
2659.701172
2659.000000
2658.701660
2658.610840
2660.000000
2659.353271
2658.330078
2660.015381
2661.299805
2660.000000
2660.000000
2659.625000
2660.102051
2661.639893
2660.649658
2660.000000
2659.684082
2659.000000
2660.112549
2662.479492
2660.756836
2659.774414
2658.796143
2658.354492
2659.546143
2657.634521
2661.891846
2660.818604
2659.143066
2660.890625
2659.199707
2662.798340
2659.158447
2661.939697
2661.077393
2662.000000
2661.861084
2661.170898
2661.798096
2660.547363
2659.243652
2659.741455
2660.095703
2662.139648
2659.705811
2659.000000
2659.283447
2660.541992
2661.474609
2659.740479
2658.739990
2658.265137
2660.091064
2662.449463
2660.457031
2659.782715
2662.000000
2661.285889
2659.229736
2660.225098
2661.223389
2661.785156
2661.406982
2662.223633
2659.189697
2660.395264
2661.791260
2660.569336
2659.655518
2661.336670
2659.222168
2660.000000
2660.000000
2659.795898
2659.597412
2661.427246
2659.362549
2660.655762
2659.324707
2661.000000
2660.682617
2659.170166
2660.000000
2659.804199
2659.396729
2660.415039
2658.591064
2660.795654
2660.425537
2661.566162
2659.779541
2659.449951
2660.772461
2660.458984
2661.533936
2660.237549
2660.518066
2659.490234
2660.752197
2659.508545
2658.000000
2657.547363
2656.903564
2659.526855
2658.000000
2658.270264
2658.715576
2658.597412
2661.241699
2662.406006
2659.964355
2661.050293
2659.615479
2660.408691
2659.838867
2662.266113
2662.749512
2661.771484
2661.416016
2662.805420
2661.812012
2661.000000
2661.348877
2662.678467
2661.298340
2662.185303
2657.463135
2660.806396
2659.000000
2659.060303
2659.949951
2659.000000
2658.899414
2657.211914
2660.946777
2660.000000
2659.919434
2659.000000
2658.691162
2657.563965
2659.790283
2659.000000
2659.000000
2659.000000
2659.450439
2660.547607
2659.452393
2660.775879
2660.225098
2660.542969
2659.000000
2658.535156
2657.727783
2660.000000
2660.294189
2661.000000
2660.348389
2659.968994
2661.370117
2659.381348
2659.548584
2663.000000
2663.000000
2661.703369
2659.324219
2660.977539
2662.341797
2660.670898
2660.328125
2660.669434
2660.335449
2661.338867
2662.000000
2661.676758
2660.381348
2659.300537
2660.000000
2660.298584
2661.000000
2660.711426
2660.000000
2660.276367
2660.732178
2660.000000
2660.510254
2661.491455
2659.737549
2659.278076
2659.418945
2659.476074
2662.113770
2659.412842
2658.882813
2661.590820
2662.127197
2660.279053
2660.737793
2660.244385
2660.770020
2659.352051
2657.603760
2660.389404
2661.797852
2661.216064
2661.770020
2660.282227
2658.717041
2660.766357
2659.541260
2658.000000
2658.691162
2661.232666
2662.000000
2661.534912
2660.230957
2661.000000
2660.763184
2660.243164
2661.249756
2662.000000
2661.190674
2660.062500
2662.007568
2659.461914
2661.000000
2661.000000
2660.802246
2659.608887
2658.198730
2659.403564
2661.000000
2660.602295
2659.389893
2661.197754
2661.585205
2660.215576
2660.337891
2658.909912
2661.527588
2659.755859
2659.000000
2658.721436
2658.307373
2659.330811
2661.041260
2661.562500
2660.094238
2661.280029
2660.347900
2661.330811
2662.314453
2662.394531
2660.708008
2660.278564
2661.794678
2662.965820
2660.000000
2660.000000
2660.263672
2661.000000
2660.511475
2659.652832
2661.813965
2661.000000
2661.000000
2660.780273
2659.198730
2661.181885
2662.662598
2659.341797
2662.831055
2660.845459
2659.144775
2661.131836
2662.775391
2659.000000
2659.000000
2659.000000
2660.933594
2660.035889
2662.909424
2661.037842
2661.991211
2661.004883
2661.990723
2660.037354
2659.029053
2659.000000
2660.882080
2661.000000
2659.188232
2660.790527
2660.116211
2660.870117
2660.144775
2660.000000
2660.000000
2660.833740
2661.000000
2661.792725
2660.460449
2659.253418
2659.000000
2659.706299
2662.101807
2662.300049
2659.897949
2659.708496
2660.723145
2658.789795
2659.491455
2659.249268
2661.262939
2661.240723
2661.000000
2660.242432
2659.253906
2661.204834
2659.815186
2656.100098
2656.465332
2658.510986
2658.220459
2658.000000
2658.804443
2660.637451
2659.331299
2659.000000
2659.000000
2660.703613
2661.854980
2661.145264
2659.291504
2661.563721
2661.143799
2656.708252
2658.565430
2658.150391
2657.159424
2658.652588
2659.000000
2659.000000
2661.294189
2659.746826
2659.000000
2660.416260
2658.955566
2659.315186
2660.000000
2658.752930
2659.212646
2659.413574
2659.567383
2660.552979
2659.903320
2660.660400
2660.872803
2659.425781
2658.413818
2660.394531
2661.395752
2661.000000
2660.382813
2658.747070
2659.907471
2659.064453
2659.304932
2660.000000
2659.341797
2659.000000
2660.378418
2659.583496
2660.444336
2661.000000
2659.541504
2659.727539
2658.538330
2657.262451
2659.966309
2661.745850
2657.467529
2659.026855
2660.000000
2657.721436
2657.774414
2659.597656
2659.171387
2660.712402
2657.502686
2657.884766
2659.782715
2659.099854
2659.916016
2660.000000
2659.055908
2659.000000
2661.883789
2660.059326
2660.981689
2659.017822
2659.002197
2661.973877
2660.000000
2659.992676
2659.017334
2659.000000
2659.000000
2659.000000
2659.000000
2659.854004
2656.584961
2659.436035
2661.729736
2658.501465
2658.000000
2661.524170
2660.262207
2660.855957
2660.158936
2660.000000
2657.585205
2659.362549
2660.000000
2660.000000
2661.534180
2662.000000
2662.000000
2663.614014
2660.725342
2660.000000
2661.625977
2661.195068
2660.203369
2659.210205
2659.000000
2659.816406
2660.839355
2659.286621
2660.738037
2661.881836
2660.205566
2660.912354
2661.000000
2658.163086
2657.037109
2659.937500
2660.000000
2660.991455
2660.005127
2660.000000
2658.993896
2658.026611
2661.029785
2662.953613
2660.022705
2662.984863
2658.049316
2659.989258
2661.936523
2656.122559
2660.923828
2659.152588
2661.864502
2659.831299
2658.283936
2660.902100
2660.000000
2659.619385
2657.153076
2658.175537
2658.805176
2658.636475
2660.771729
2660.241943
2661.509521
2662.734131
2660.892334
2658.852783
2661.000000
2660.399170
2659.315918
2660.000000
2659.651855
2659.000000
2659.412109
2660.896729
2660.586182
2659.483887
2659.010742
2659.012939
2659.481689
2660.594482
2660.344727
2659.581055
2660.610840
2660.362061
2660.000000
2661.388672
2659.831055
2659.754150
2660.000000
2661.626221
2659.496338
2661.528564
2658.616211
2658.854004
2657.272949
2657.871094
2658.879395
2659.000000
2659.908691
2657.216797
2659.829834
2660.000000
2659.019775
2660.981689
2658.052734
2659.917480
2658.097168
2660.000000
2659.895996
2658.053711
2658.945068
2658.173340
2661.053955
2662.000000
2662.037598
2662.877930
2660.078369
2661.962402
2661.169922
2665.848877
2659.911621
