Record Length: 1024
BoardID: 31
Channel: 2
Event Number: 179
Pattern: 0x0000
Trigger Time Stamp: 665884374
DC offset (DAC): 0x7FFF
Start Index Cell: 715
4115.000000
4115.116699
4134.013672
4144.845215
4094.090088
4112.629883
4128.783691
4099.847168
4124.764160
4111.484863
4095.555908
4094.633789
4131.089355
4106.652832
4134.333496
4113.231934
4105.000000
4121.658203
4086.136719
4121.771973
4126.544922
4103.149414
4122.432617
4114.819336
4116.191406
4088.134277
4100.133789
4096.049805
4142.189453
4105.754395
4119.963867
4081.275146
4097.758301
4118.919922
4097.068359
4139.593262
4114.480957
4129.576660
4090.624756
4136.404785
4155.959961
4121.989746
4132.542969
4137.938965
4147.693848
4095.194092
4060.591553
4134.078125
4134.225098
4097.311523
4122.791504
4121.001953
4151.553711
4098.901367
4108.546387
4085.371826
4137.460449
4103.965820
4114.241699
4115.473633
4097.017578
4113.362305
4121.563477
4094.258301
4099.821777
4131.367188
4074.916504
4129.867676
4089.297119
4110.131836
4140.255859
4109.504883
4107.624023
4093.291260
4105.878906
4091.420166
4113.303711
4110.357422
4101.522949
4100.753418
4126.986816
4121.803223
4125.068848
4142.963379
4112.897461
4085.984131
4113.072754
4085.692139
4104.001465
4099.509766
4116.434082
4095.977051
4112.070801
4097.231445
4123.764160
4138.352539
4103.142090
4128.898438
4100.256348
4107.104980
4124.979980
4136.354492
4109.018066
4095.111084
4105.969727
4140.040039
4148.857422
4148.272461
4128.256836
4119.790527
4105.536621
4099.516602
4072.059082
4082.024414
4088.885498
4106.999512
4114.926270
4113.308105
4124.118164
4121.335449
4109.684570
4100.500000
4087.112305
4090.070313
4108.778320
4123.409668
4122.938965
4120.325195
4138.609375
4092.295898
4108.607422
4133.000000
4129.015137
4118.214355
4110.534668
4118.997559
4125.945313
4085.468262
4099.795898
4089.794678
4080.120361
4082.349121
4077.817627
4119.391602
4091.191162
4072.787842
4098.387695
4099.359863
4128.124023
4104.572266
4123.115723
4112.778809
4111.879395
4110.246094
4086.600830
4136.938965
4104.495605
4094.477783
4119.961914
4112.540039
4118.192871
4106.372559
4135.871094
4118.087891
4095.625732
4117.135742
4147.354492
4135.595703
4108.474121
4103.402832
4110.312012
4123.322266
4098.410156
4105.458496
4101.967285
4086.281982
4101.202148
4100.332031
4088.461670
4105.265137
4119.449707
4099.894043
4099.340820
4106.502930
4086.933594
4067.860840
4114.448242
4137.490723
4095.863281
4096.484863
4084.186523
4090.554688
4083.246094
4093.093018
4093.593018
4117.303711
4103.731934
4129.628418
4122.245117
4111.769043
4121.406738
4130.814453
4112.280762
4092.177979
4130.139648
4127.125977
4112.456543
4125.296387
4121.517578
4102.661133
4143.795898
4129.500488
4092.172607
4129.315430
4110.246582
4102.833008
4073.568115
4111.583496
4097.071289
4107.396484
4075.000488
4111.305664
4157.489258
4151.663574
4087.629395
4102.834473
4115.363770
4098.080078
4079.696045
4106.207520
4125.799805
4132.392578
4089.692627
4111.713867
4104.098633
4092.006592
4148.162598
4154.854004
4077.416992
4120.019531
4091.818359
4074.864014
4120.441406
4161.201660
4111.440918
4121.248535
4082.299805
4103.409180
4080.132568
4072.579346
4115.223145
4116.575195
4093.010986
4098.739746
4138.105957
4112.848633
4103.645996
4121.505371
4118.645996
4117.104980
4107.179688
4098.880371
4102.381836
4127.768066
4086.171631
4110.301270
4089.468506
4110.807129
4121.307129
4102.937012
4100.023926
4117.552734
4124.512207
4119.726074
4100.141602
4118.998047
4117.199219
4101.780273
4138.660156
4127.708008
4112.333984
4118.578125
4123.966797
4103.679199
4089.560059
4126.968262
4102.950195
4112.660156
4101.276855
4093.353760
4095.937988
4108.041504
4117.339355
4120.676270
4119.870117
4103.814453
4087.574951
4102.711426
4126.114258
4138.111328
4140.179199
4109.438965
4088.224854
4132.499023
4158.861816
4115.403320
4108.123047
4117.641113
4137.133789
4084.210449
4071.170898
4099.362305
4079.734619
4076.170166
4080.132813
4057.672363
4052.498535
4079.450195
4089.177002
4080.157959
4088.674561
4082.223877
4095.475098
4083.010986
4102.104004
4051.747803
4050.510010
4041.639160
4090.440918
4095.002197
4091.703125
4062.828369
4082.567627
4058.857666
4089.350098
4084.595459
4088.269531
4067.436523
4072.683105
4081.980957
4101.878906
4067.253906
4055.755127
4083.169678
4064.597168
4079.045898
4090.372070
4082.021484
4088.159424
4131.352539
4092.578613
4113.135254
4093.877930
4077.027344
4048.700684
4080.865967
4058.977295
4097.964844
4076.281982
4071.739502
4059.436768
4093.989746
4049.221191
4092.697754
4076.292969
4093.881348
4080.640137
4122.247070
4047.032959
4116.283691
4076.479492
4104.783691
4068.094238
4099.804199
4056.653076
4121.964844
4057.330566
4099.252441
4069.715820
4095.164551
4065.047607
4100.831543
4076.821289
4102.166016
4065.868896
4110.935059
4089.614014
4146.212402
4079.254395
4107.735840
4072.021240
4098.981445
4067.999756
4102.882324
4051.487549
4082.500488
4043.798828
4117.375000
4049.658203
4097.795410
4034.916992
4081.212158
4067.571533
4099.463379
4063.224365
4115.202637
4037.268799
4089.868896
4060.248291
4088.588135
4075.172852
4129.534180
4068.040039
4076.359131
4030.223389
4102.471680
4057.696777
4111.357910
4065.973389
4103.833496
4051.462402
4100.914551
4046.579590
4093.946533
4057.098145
4112.215332
4045.382080
4059.355713
4038.857910
4108.932617
4055.113037
4094.266846
4060.451172
4113.441406
4076.652588
4057.702881
4076.208496
4101.060059
4055.321289
4052.867676
4033.256592
4089.423828
4088.661865
4104.276367
4050.883789
4081.442871
4062.659668
4087.302002
4070.605957
4135.050781
4064.392822
4076.043945
4065.973877
4106.002441
4053.931641
4093.747803
4075.126221
4089.211426
4060.239258
4102.416504
4068.813232
4107.755371
4064.778320
4093.247559
4085.729004
4121.743164
4088.611084
4085.429932
4063.627930
4062.913330
4071.048584
4076.557617
4036.505371
4076.100830
4081.273193
4058.651611
4065.238281
4128.442383
4089.488525
4059.886719
4068.943115
4093.428711
4091.962646
4101.326172
4094.814453
4088.993652
4039.612305
4062.299316
4048.093018
4090.892578
4066.078613
4104.064453
4086.156006
4071.928955
4048.944336
4101.622070
4102.760742
4119.418945
4076.604736
4091.553711
4064.669922
4110.556641
4052.188721
4070.973389
4019.816162
4083.650635
4056.423340
4101.558594
4036.724365
4101.282715
4077.051758
4107.755371
4063.644775
4076.929688
4058.108887
4084.035400
4041.291748
4098.480957
4045.415283
4074.406006
4007.539551
4098.304199
4036.245117
4094.095703
4095.284668
4095.488281
4071.158691
4119.262207
4044.452637
4108.890625
4061.947021
4073.918213
4028.952148
4075.425049
4049.063477
4084.225830
4065.249268
4097.144531
4049.923340
4100.157227
4053.033691
4055.682373
4032.233887
4093.075928
4060.051758
4089.772705
4072.802979
4076.913574
4039.448486
4069.737305
4059.237793
4068.265869
4059.240967
4107.933594
4081.202637
4081.611084
4061.819092
4107.680176
4096.304688
4118.657227
4091.691162
4124.655273
4098.287598
4108.603516
4063.409668
4112.577148
4071.678467
4078.357178
4074.311279
4104.489258
4079.297852
4094.904297
4055.789551
4061.374512
4088.171143
4096.391602
4044.258301
4065.478516
4063.577637
4105.141113
4089.925293
4063.644287
4058.109375
4092.202393
4073.467529
4091.927246
4070.315430
4075.995117
4058.804932
4056.461670
4070.666748
4126.299316
4072.270020
4053.279053
4080.929443
4108.172852
4103.519043
4096.632324
4069.102051
4070.602783
4079.369629
4079.418457
4082.356445
4081.106689
4091.994385
4088.323730
4080.812012
4076.573242
4074.097168
4059.034912
4078.775391
4073.196289
4083.641602
4083.952393
4077.865723
4073.102295
4066.411133
4085.607910
4085.123535
4086.478760
4090.792969
4071.385742
4060.528076
4041.286621
4032.677246
4053.972656
4080.877686
4082.166504
4069.933594
4070.779297
4090.307373
4102.457520
4069.406494
4036.932373
4063.500488
4074.970215
4088.733154
4078.700195
4077.182861
4100.402344
4121.965332
4088.068604
4078.802734
4072.819580
4080.728027
4055.541504
4091.361816
4076.346680
4097.847656
4069.718994
4109.764160
4074.198730
4110.314941
4065.521240
4076.598389
4050.715576
4085.581543
4070.084961
4090.384277
4062.690186
4101.696289
4089.309570
4094.010498
4098.000000
4095.271973
4096.494141
4094.294434
4083.917480
4095.601807
4048.324951
4085.654297
4093.804688
4104.670410
4069.122314
4097.716797
4080.575439
4086.269287
4071.221924
4079.257080
4077.876465
4083.195557
4042.583984
4083.031006
4104.549805
4114.471680
4099.900879
4104.036621
4072.990479
4054.023438
4073.252930
4075.921875
4073.062256
4058.643799
4077.691162
4074.667725
4072.369385
4032.671875
4055.307373
4073.064453
4095.848145
4056.102295
4063.845703
4052.811768
4099.228516
4087.972412
4154.327148
4113.113770
4072.218018
4044.901611
4060.587402
4056.224609
4085.088379
4065.184082
4112.463379
4074.695801
4065.297852
4057.555908
4086.910645
4068.789795
4082.895508
4058.151855
4117.988281
4095.751221
4067.714844
4068.692627
4109.553223
4035.329590
4101.642578
4080.155762
4096.112305
4066.937012
4131.523926
4019.791504
4119.816895
4059.379639
4125.694824
4041.070068
4104.793945
4061.142334
4068.999023
4082.178467
4098.218750
4033.159668
4106.425293
4028.980713
4096.953613
4071.799316
4121.668457
4055.852539
4104.516602
4089.853271
4043.228027
4073.612305
4108.208984
4035.774658
4068.252686
4059.137695
4112.773926
4054.030029
4088.941406
4066.130859
4124.312500
4066.304443
4094.593750
4042.160645
4103.027344
4038.244385
4101.317383
4050.180908
4104.376953
4009.898438
4112.122559
4011.157471
4077.542236
4041.419189
4078.509033
4031.794434
4099.458008
4048.869629
4119.749023
4029.414795
4120.471680
4091.212158
4146.956543
4055.517578
4114.974609
4084.138428
4098.719238
4000.142090
4098.855469
4069.187012
4106.256836
4070.893311
4119.831543
4066.551758
4120.971680
4021.010498
4104.865723
4051.894043
4115.801270
4014.614258
4085.852051
4046.797607
4085.887451
4054.758789
4102.914063
4054.097412
4097.659180
4112.458496
4174.651855
4120.601074
4143.296875
4078.636963
4137.785645
4073.895020
4100.674805
4080.281494
4103.736328
4076.621094
4061.294678
4053.611572
4103.572754
4104.762207
4117.954590
4111.586914
4119.680664
4119.355957
4125.250000
4096.038086
4101.726074
4110.878906
4111.026367
4105.995605
4122.003418
4130.247070
4109.890137
4097.684570
4094.547852
4137.869629
4114.213867
4093.306641
4122.578613
4131.466797
4116.792969
4115.459473
4121.124023
4084.010498
4099.788086
4114.006348
4115.000000
4081.142578
4098.859863
4117.204102
4102.660645
4098.188965
4123.589844
4107.893555
4110.831543
4090.522949
4092.992676
4099.858887
4142.942383
4115.544434
4108.630859
4111.955566
4063.309326
4085.384277
4109.071777
4122.677734
4131.664063
4121.953125
4130.870117
4108.630859
4104.677246
4100.469238
4152.260254
4136.673340
4143.176270
4116.699707
4119.362305
4117.375000
4102.651367
4112.182129
4091.541748
4095.069092
4143.627441
4141.000000
4114.077148
4101.758789
4131.065430
4103.396973
4119.198242
4140.051270
4130.480469
4113.928223
4107.163086
4103.045898
4115.165527
4116.953125
4112.867188
4114.730469
4095.674805
4090.444580
4109.802734
4103.135254
4110.521973
4113.010742
4092.226074
4099.120117
4110.179199
4111.987305
4121.253906
4112.486816
4080.374756
4085.641113
4122.085938
4110.472168
4113.141113
4122.275879
4099.305664
4082.027344
4095.000000
4093.544434
4089.696289
4100.963867
4132.788086
4131.720703
4094.707764
4081.253174
4091.065674
4100.159180
4130.276855
4100.727051
4121.125488
4134.970703
4106.314453
4089.088379
4096.701172
4075.553711
4092.712646
4107.578613
4129.640625
4113.452148
4120.378906
4067.945068
4076.294922
4120.556152
4105.111328
4140.031250
4074.146973
4102.476074
4108.775391
4130.117188
4124.788086
4080.291748
4105.029785
4152.054688
4100.612793
4084.075928
4084.875977
4133.501465
4140.201172
4095.436523
4128.294434
4116.682129
4151.429199
4099.373535
4119.359863
4088.350586
4100.427734
4098.321289
4117.590332
4135.040527
4108.822754
4131.008301
4121.755371
4104.845215
4121.223633
4119.064453
4117.036133
4075.000000
4113.160645
4138.167480
4110.715820
4084.894531
4130.709473
4120.571777
4101.023438
4111.113770
4086.091797
4113.068359
4106.980469
4112.884766
4092.590332
4074.543213
4108.913574
4082.917969
4101.754883
4135.019043
4141.886230
4107.263184
4106.000000
4113.567871
4118.677246
4074.603271
4146.424316
4082.719727
4109.674316
4110.118164
4169.413086
4092.651855
4078.687500
4068.859619
4110.936523
4088.394287
4134.210449
4117.408691
4099.136230
4085.815918
4093.482910
4099.698730
4146.908691
4112.121094
4118.880371
